wavelength	transmission	transmission
nm	%	%
	NaCl, not irradiated	NaCl, irradiated with X-rays
1100	86.724	72.188
1099.9	86.574	72.426
1099.8	86.657	72.101
1099.7	86.751	72.135
1099.6	86.721999	72.125
1099.5	86.472	72.209999
1099.4	86.706999	72.119
1099.3	86.384	72.11
1099.2	86.653	72.233999
1099.1	86.692	72.104
1099	86.632	72.074
1098.9	86.619	72.196
1098.8	86.692	72.173
1098.7	86.406	72.045
1098.6	86.685999	72.239
1098.5	86.587	72.145
1098.4	86.52	72.206999
1098.3	86.743	72.185
1098.2	86.665	72.167
1098.1	86.577	72.218999
1098	86.646999	72.239
1097.9	86.697999	72.178
1097.8	86.563	72.166
1097.7	86.447	72.151
1097.6	86.672	72.143
1097.5	86.661999	72.133
1097.4	86.456	72.08
1097.3	86.571	72.013
1097.2	86.641	72.099999
1097.1	86.574	72.145
1097	86.767	72.143999
1096.9	86.749	72.057999
1096.8	86.634	72.018
1096.7	86.563	71.950999
1096.6	86.53	72.119999
1096.5	86.45	72.099
1096.4	86.375999	72.05
1096.3	86.546	72.036999
1096.2	86.652	71.986
1096.1	86.572	72.053
1096	86.55	72.092
1095.9	86.595999	72.096999
1095.8	86.658	72.165
1095.7	86.798	72.131
1095.6	86.846	72.189
1095.5	86.649	72.142
1095.4	86.539999	71.984
1095.3	86.58	71.986
1095.2	86.665	71.945
1095.1	86.536999	71.943
1095	86.53	72.007
1094.9	86.682999	72.07
1094.8	86.487	72.026
1094.7	86.624	72.016
1094.6	86.597	72.060999
1094.5	86.565	71.944
1094.4	86.841	72.008
1094.3	86.812	72.124
1094.2	86.55	71.911
1094.1	86.572999	72.008
1094	86.678	71.879
1093.9	86.452	71.806
1093.8	86.79	71.938
1093.7	86.515	72.113
1093.6	86.562	71.973
1093.5	86.405	71.860999
1093.4	86.889	72.02
1093.3	86.582	72.043
1093.2	86.509	71.862
1093.1	86.394	71.874
1093	86.559	71.913
1092.9	86.578999	72.015
1092.8	86.585	71.992999
1092.7	86.763	71.923999
1092.6	86.696	72.026
1092.5	86.532	71.931
1092.4	86.48	71.887999
1092.3	86.555	71.909
1092.2	86.871	71.827
1092.1	86.809	71.91
1092	86.687	71.745
1091.9	86.708	71.898
1091.8	86.637	72.042
1091.7	86.661	72.084999
1091.6	86.728	72.047
1091.5	86.736999	71.992
1091.4	86.717999	71.992
1091.3	86.534	71.92
1091.2	86.571	71.989
1091.1	86.685999	71.913
1091	86.585	71.857
1090.9	86.468	71.997
1090.8	86.432	71.97
1090.7	86.426999	71.961
1090.6	86.524	71.950999
1090.5	86.673999	71.834
1090.4	86.68	71.965999
1090.3	86.66	71.974
1090.2	86.559	71.863999
1090.1	86.484	72.09
1090	86.688	72.019
1089.9	86.703	71.94
1089.8	86.523	71.937
1089.7	86.59	71.938999
1089.6	86.677	71.895
1089.5	86.632	71.906
1089.4	86.663	71.907
1089.3	86.554	71.902
1089.2	86.699	71.965999
1089.1	86.492999	71.908
1089	86.456999	71.922
1088.9	86.59	71.792999
1088.8	86.491	71.796
1088.7	86.445	71.873
1088.6	86.575	71.858999
1088.5	86.863	71.674
1088.4	86.475	71.819
1088.3	86.523	71.895
1088.2	86.452	71.789999
1088.1	86.545	71.879
1088	86.601	71.782
1087.9	86.456999	71.694999
1087.8	86.495	71.745
1087.7	86.509	71.961
1087.6	86.529	71.799
1087.5	86.506	71.751
1087.4	86.363999	71.822
1087.3	86.595	71.772
1087.2	86.447	71.871
1087.1	86.429999	71.818
1087	86.417	71.801
1086.9	86.45	71.813
1086.8	86.319	71.815
1086.7	86.473999	71.898
1086.6	86.611	71.797
1086.5	86.717999	71.733999
1086.4	86.693	71.763
1086.3	86.684	71.887
1086.2	86.656	71.879
1086.1	86.733999	71.711
1086	86.685999	71.765999
1085.9	86.562	71.73
1085.8	86.539999	71.667
1085.7	86.504	71.69
1085.6	86.575999	71.791
1085.5	86.53	71.774
1085.4	86.527	71.741
1085.3	86.465999	71.730999
1085.2	86.446	71.77
1085.1	86.587	71.77
1085	86.512	71.785
1084.9	86.536	71.788
1084.8	86.697	71.676
1084.7	86.64	71.739
1084.6	86.575	71.679999
1084.5	86.527	71.745
1084.4	86.58	71.958
1084.3	86.485999	71.813999
1084.2	86.692	71.783
1084.1	86.521	71.706
1084	86.623	71.726
1083.9	86.607999	71.714
1083.8	86.436	71.789999
1083.7	86.502	71.685
1083.6	86.518	71.685
1083.5	86.506	71.61
1083.4	86.414	71.564
1083.3	86.497999	71.69
1083.2	86.611	71.718999
1083.1	86.699	71.677
1083	86.358999	71.535
1082.9	86.69	71.667999
1082.8	86.752	71.705
1082.7	86.735	71.835
1082.6	86.846	71.63
1082.5	86.568	71.631999
1082.4	86.648	71.7
1082.3	86.462999	71.663
1082.2	86.595	71.696
1082.1	86.675	71.8
1082	86.560999	71.665
1081.9	86.57	71.598
1081.8	86.548	71.765999
1081.7	86.631	71.745
1081.6	86.534	71.686
1081.5	86.527	71.618
1081.4	86.483	71.645
1081.3	86.491	71.629
1081.2	86.456	71.52
1081.1	86.536	71.452
1081	86.492999	71.538
1080.9	86.487	71.559
1080.8	86.471	71.567
1080.7	86.536	71.579
1080.6	86.614	71.569999
1080.5	86.623	71.58
1080.4	86.334999	71.625
1080.3	86.414999	71.651
1080.2	86.587999	71.608
1080.1	86.594	71.628
1080	86.57	71.604
1079.9	86.527	71.53
1079.8	86.548999	71.468
1079.7	86.551999	71.536999
1079.6	86.523	71.72
1079.5	86.492999	71.625
1079.4	86.432	71.589
1079.3	86.543	71.622
1079.2	86.749	71.596
1079.1	86.543	71.533
1079	86.488	71.54
1078.9	86.462999	71.633
1078.8	86.421	71.501
1078.7	86.571	71.513
1078.6	86.602	71.566
1078.5	86.617	71.604999
1078.4	86.506	71.631999
1078.3	86.563999	71.583
1078.2	86.689	71.586
1078.1	86.577	71.658999
1078	86.611999	71.586
1077.9	86.599999	71.580999
1077.8	86.480999	71.614999
1077.7	86.443	71.556
1077.6	86.536999	71.643999
1077.5	86.514	71.477999
1077.4	86.653	71.499
1077.3	86.477999	71.519
1077.2	86.461	71.619999
1077.1	86.426	71.476
1077	86.390999	71.505
1076.9	86.452	71.504
1076.8	86.606	71.592999
1076.7	86.517	71.718
1076.6	86.492999	71.539
1076.5	86.551999	71.414999
1076.4	86.545	71.574
1076.3	86.56	71.560999
1076.2	86.632	71.595
1076.1	86.604	71.627
1076	86.518	71.566
1075.9	86.597	71.532
1075.8	86.548	71.453999
1075.7	86.578	71.441
1075.6	86.433	71.458
1075.5	86.395	71.448
1075.4	86.414	71.453999
1075.3	86.505	71.426999
1075.2	86.473999	71.477999
1075.1	86.5	71.516
1075	86.521	71.55
1074.9	86.536	71.509
1074.8	86.502	71.486
1074.7	86.479	71.527
1074.6	86.472	71.503
1074.5	86.458	71.479
1074.4	86.462999	71.48
1074.3	86.578	71.492999
1074.2	86.497999	71.484
1074.1	86.597	71.486999
1074	86.606	71.47
1073.9	86.646	71.464
1073.8	86.556	71.413
1073.7	86.488	71.348999
1073.6	86.572	71.413
1073.5	86.616	71.455
1073.4	86.634	71.433
1073.3	86.512	71.458
1073.2	86.526	71.465
1073.1	86.592	71.480999
1073	86.68	71.445
1072.9	86.663	71.453999
1072.8	86.761	71.279
1072.7	86.553	71.413
1072.6	86.507	71.36
1072.5	86.462	71.371
1072.4	86.438	71.445
1072.3	86.627	71.355
1072.2	86.58	71.369
1072.1	86.566	71.354
1072	86.556999	71.480999
1071.9	86.497	71.364999
1071.8	86.52	71.357
1071.7	86.48	71.411999
1071.6	86.431	71.442
1071.5	86.462999	71.464
1071.4	86.531	71.428
1071.3	86.581	71.327
1071.2	86.489	71.345
1071.1	86.665	71.298
1071	86.592	71.288
1070.9	86.594	71.331
1070.8	86.623	71.319
1070.7	86.609	71.407
1070.6	86.637	71.355999
1070.5	86.578999	71.313999
1070.4	86.595999	71.284
1070.3	86.655	71.34
1070.2	86.521	71.379
1070.1	86.462999	71.442
1070	86.497999	71.429
1069.9	86.528	71.335
1069.8	86.480999	71.272
1069.7	86.462999	71.255
1069.6	86.563999	71.284
1069.5	86.563999	71.307
1069.4	86.5	71.283
1069.3	86.602999	71.292999
1069.2	86.581	71.297
1069.1	86.458	71.276
1069	86.534	71.321
1068.9	86.566	71.246
1068.8	86.548	71.281
1068.7	86.617999	71.336
1068.6	86.5	71.33
1068.5	86.532	71.276
1068.4	86.512	71.19
1068.3	86.495	71.17
1068.2	86.502	71.235
1068.1	86.404	71.226
1068	86.443	71.152
1067.9	86.563	71.233999
1067.8	86.521	71.253999
1067.7	86.59	71.277999
1067.6	86.627	71.308
1067.5	86.569	71.282
1067.4	86.374	71.251
1067.3	86.438999	71.233999
1067.2	86.514	71.226999
1067.1	86.414	71.182
1067	86.492	71.221999
1066.9	86.574	71.047
1066.8	86.488	71.233999
1066.7	86.547	71.282
1066.6	86.688	71.233999
1066.5	86.652	71.212
1066.4	86.606	71.265
1066.3	86.639	71.19
1066.2	86.539	71.251
1066.1	86.479	71.236
1066	86.392	71.228
1065.9	86.518	71.152
1065.8	86.528	71.267
1065.7	86.448	71.177
1065.6	86.465999	71.12
1065.5	86.447	71.128
1065.4	86.568	71.079
1065.3	86.556999	71.167999
1065.2	86.487	71.149
1065.1	86.473999	71.096
1065	86.512999	71.143999
1064.9	86.417999	71.146
1064.8	86.363999	71.175999
1064.7	86.402	71.194
1064.6	86.533	71.208
1064.5	86.56	71.226
1064.4	86.441	71.179999
1064.3	86.413	71.158999
1064.2	86.436	71.107
1064.1	86.362	71.094
1064	86.367	71.114999
1063.9	86.393	71.146
1063.8	86.505	71.081
1063.7	86.492	71.036999
1063.6	86.459	71.072
1063.5	86.452	71.063
1063.4	86.414999	71.098
1063.3	86.482	71.158999
1063.2	86.491	71.134
1063.1	86.445	71.122
1063	86.361	71.116
1062.9	86.433	71.162
1062.8	86.492	71.131999
1062.7	86.471	71.081999
1062.6	86.465999	71.062
1062.5	86.487	71.096
1062.4	86.4	71.155999
1062.3	86.398	71.111999
1062.2	86.444	71.229
1062.1	86.581	71.211
1062	86.55	71.08
1061.9	86.48	71.096
1061.8	86.467	71.108999
1061.7	86.566	71.084999
1061.6	86.431	71.044
1061.5	86.369	71.095
1061.4	86.511	70.994
1061.3	86.450999	71.111999
1061.2	86.453	71.014
1061.1	86.374	71.027
1061	86.512999	71.036999
1060.9	86.334999	71.039
1060.8	86.441999	71.055
1060.7	86.497999	71.02
1060.6	86.492999	70.953999
1060.5	86.514	71.074
1060.4	86.402999	71.014
1060.3	86.517	71.009
1060.2	86.416	71.036999
1060.1	86.497	70.981
1060	86.556	70.986999
1059.9	86.551	71.014
1059.8	86.546	70.986
1059.7	86.324	70.938999
1059.6	86.429999	70.926999
1059.5	86.536999	70.991
1059.4	86.450999	70.999
1059.3	86.443	70.977999
1059.2	86.402	70.952
1059.1	86.458	70.952
1059	86.479	70.991
1058.9	86.476	71.007
1058.8	86.456	70.953999
1058.7	86.428	70.967
1058.6	86.468999	70.944
1058.5	86.518	70.972
1058.4	86.483	70.985
1058.3	86.445	70.887999
1058.2	86.409	70.938
1058.1	86.39	70.943
1058	86.429999	70.946
1057.9	86.355999	70.905
1057.8	86.38	70.877
1057.7	86.449	70.889
1057.6	86.502	70.929
1057.5	86.387	70.855
1057.4	86.485	70.919
1057.3	86.465	70.949
1057.2	86.429999	70.916
1057.1	86.487	70.934
1057	86.351	70.97
1056.9	86.408	70.908
1056.8	86.387	70.889
1056.7	86.396	70.903
1056.6	86.389	70.881
1056.5	86.405	70.887999
1056.4	86.488	70.902
1056.3	86.341	70.875999
1056.2	86.462999	70.92
1056.1	86.488	70.94
1056	86.438999	70.914
1055.9	86.475	70.906
1055.8	86.436	70.807
1055.7	86.377	70.862
1055.6	86.386	70.889
1055.5	86.476	70.899
1055.4	86.585	70.863
1055.3	86.425	70.86
1055.2	86.458	70.84
1055.1	86.443	70.857
1055	86.434	70.860999
1054.9	86.455	70.867
1054.8	86.455	70.837
1054.7	86.509	70.781
1054.6	86.497999	70.857
1054.5	86.421	70.923
1054.4	86.336	70.894
1054.3	86.292999	70.846
1054.2	86.404	70.808
1054.1	86.472	70.819
1054	86.338	70.816
1053.9	86.324	70.77
1053.8	86.355	70.763
1053.7	86.44	70.765
1053.6	86.458	70.718999
1053.5	86.443	70.706
1053.4	86.488	70.776
1053.3	86.543	70.799
1053.2	86.518	70.763
1053.1	86.448	70.806
1053	86.402	70.833
1052.9	86.358999	70.801
1052.8	86.378999	70.804
1052.7	86.462	70.789
1052.6	86.545	70.765
1052.5	86.539	70.753
1052.4	86.423	70.745
1052.3	86.409	70.738999
1052.2	86.447	70.69
1052.1	86.456999	70.709999
1052	86.382	70.758
1051.9	86.412	70.716
1051.8	86.399	70.733999
1051.7	86.497	70.726999
1051.6	86.429999	70.730999
1051.5	86.524	70.678
1051.4	86.382	70.753999
1051.3	86.399	70.775
1051.2	86.419	70.663
1051.1	86.443	70.711
1051	86.377	70.7
1050.9	86.455	70.732
1050.8	86.467	70.587999
1050.7	86.554	70.706
1050.6	86.452	70.7
1050.5	86.303	70.711
1050.4	86.465	70.653
1050.3	86.449	70.64
1050.2	86.455	70.718
1050.1	86.377	70.712
1050	86.389	70.750999
1049.9	86.404	70.725
1049.8	86.295999	70.651
1049.7	86.38	70.664
1049.6	86.375	70.643999
1049.5	86.405	70.615
1049.4	86.369	70.616
1049.3	86.409	70.648
1049.2	86.414	70.627
1049.1	86.547	70.631999
1049	86.492	70.648
1048.9	86.471	70.639
1048.8	86.437	70.625
1048.7	86.438	70.626
1048.6	86.45	70.625
1048.5	86.417999	70.648
1048.4	86.386	70.627
1048.3	86.385	70.593999
1048.2	86.417	70.604
1048.1	86.473	70.532
1048	86.475	70.531
1047.9	86.511	70.583
1047.8	86.545	70.571
1047.7	86.456	70.563
1047.6	86.408	70.611
1047.5	86.414999	70.596999
1047.4	86.402999	70.578
1047.3	86.468	70.593999
1047.2	86.458	70.616
1047.1	86.428	70.562
1047	86.453999	70.542
1046.9	86.406	70.523
1046.8	86.453	70.535
1046.7	86.492999	70.521
1046.6	86.44	70.542
1046.5	86.444	70.581
1046.4	86.455	70.485
1046.3	86.504	70.512
1046.2	86.475	70.564
1046.1	86.396	70.607
1046	86.349	70.537
1045.9	86.416	70.593999
1045.8	86.409	70.533999
1045.7	86.446	70.464
1045.6	86.294	70.581
1045.5	86.336	70.514
1045.4	86.331999	70.515
1045.3	86.385	70.492
1045.2	86.417	70.5
1045.1	86.323	70.43
1045	86.385	70.489999
1044.9	86.42	70.506999
1044.8	86.414999	70.474
1044.7	86.411	70.454
1044.6	86.341	70.461
1044.5	86.436	70.547
1044.4	86.349	70.465
1044.3	86.382	70.457
1044.2	86.371	70.447999
1044.1	86.322	70.443
1044	86.369	70.438
1043.9	86.387	70.421
1043.8	86.42	70.418
1043.7	86.46	70.419
1043.6	86.383	70.42
1043.5	86.377	70.425
1043.4	86.301	70.435999
1043.3	86.334999	70.416
1043.2	86.398	70.431999
1043.1	86.378	70.41
1043	86.342	70.396999
1042.9	86.372	70.39
1042.8	86.371	70.392
1042.7	86.363999	70.375
1042.6	86.334	70.411
1042.5	86.292999	70.425
1042.4	86.331	70.39
1042.3	86.456999	70.399
1042.2	86.425	70.363
1042.1	86.362	70.371
1042	86.407	70.343999
1041.9	86.429	70.339
1041.8	86.383	70.363
1041.7	86.355	70.374
1041.6	86.377	70.366
1041.5	86.365	70.345
1041.4	86.353	70.331
1041.3	86.404	70.313999
1041.2	86.326	70.308
1041.1	86.289	70.304
1041	86.37	70.284
1040.9	86.384	70.230999
1040.8	86.41	70.293
1040.7	86.444	70.27
1040.6	86.426	70.309999
1040.5	86.45	70.281
1040.4	86.394	70.304
1040.3	86.383	70.313999
1040.2	86.367999	70.289999
1040.1	86.319999	70.26
1040	86.35	70.27
1039.9	86.386	70.299
1039.8	86.396	70.301999
1039.7	86.295	70.265
1039.6	86.343	70.283
1039.5	86.343999	70.235
1039.4	86.417	70.275
1039.3	86.422	70.23
1039.2	86.435	70.218999
1039.1	86.4	70.235
1039	86.438999	70.282
1038.9	86.389	70.265
1038.8	86.311	70.28
1038.7	86.31	70.229
1038.6	86.334999	70.194999
1038.5	86.315	70.218999
1038.4	86.326	70.191999
1038.3	86.338	70.208
1038.2	86.342	70.187
1038.1	86.321	70.152
1038	86.301	70.17
1037.9	86.402999	70.202
1037.8	86.378999	70.178
1037.7	86.387	70.182999
1037.6	86.387	70.185
1037.5	86.355999	70.212
1037.4	86.321	70.221
1037.3	86.295999	70.193
1037.2	86.301	70.154
1037.1	86.295	70.142
1037	86.295	70.111
1036.9	86.325	70.116999
1036.8	86.337	70.147
1036.7	86.311	70.15
1036.6	86.348	70.201
1036.5	86.362	70.138
1036.4	86.361	70.123
1036.3	86.341	70.162
1036.2	86.414	70.198
1036.1	86.337	70.191999
1036	86.375999	70.196
1035.9	86.385	70.128
1035.8	86.284	70.093
1035.7	86.345	70.118
1035.6	86.381	70.056
1035.5	86.316	70.062
1035.4	86.316	70.091
1035.3	86.35	70.074
1035.2	86.375999	70.087999
1035.1	86.404	70.136
1035	86.363999	70.062
1034.9	86.433	70.105999
1034.8	86.412	70.062
1034.7	86.295	70.048
1034.6	86.292	70.089
1034.5	86.301	70.101
1034.4	86.334	70.037
1034.3	86.482	70.126
1034.2	86.441	70.028
1034.1	86.425	70.048999
1034	86.406	70.033999
1033.9	86.377	70.059
1033.8	86.447	69.993
1033.7	86.485	70.033999
1033.6	86.502	70.043
1033.5	86.497	70.077
1033.4	86.378999	70.062
1033.3	86.307999	70.038
1033.2	86.327	69.993
1033.1	86.345	69.999
1033	86.425	70.03
1032.9	86.473999	70.003
1032.8	86.41	69.986
1032.7	86.323	70.006999
1032.6	86.355999	69.985
1032.5	86.42	69.968
1032.4	86.492	69.989
1032.3	86.491	70.005
1032.2	86.419	69.971999
1032.1	86.394	69.952
1032	86.384	69.986999
1031.9	86.395	70.006999
1031.8	86.436	69.974999
1031.7	86.459	69.945
1031.6	86.45	69.896
1031.5	86.404	69.91
1031.4	86.408	69.929
1031.3	86.417999	69.92
1031.2	86.44	69.908
1031.1	86.487	69.913
1031	86.428	69.908
1030.9	86.383	69.919
1030.8	86.390999	69.922
1030.7	86.307999	69.914
1030.6	86.378999	69.899999
1030.5	86.382	69.891
1030.4	86.397	69.881
1030.3	86.367	69.872
1030.2	86.322	69.886
1030.1	86.373	69.83
1030	86.456	69.87
1029.9	86.488	69.855
1029.8	86.484	69.874
1029.7	86.465	69.899999
1029.6	86.401	69.894
1029.5	86.438999	69.914
1029.4	86.390999	69.895
1029.3	86.438999	69.869
1029.2	86.382	69.843999
1029.1	86.33	69.828
1029	86.273	69.806
1028.9	86.26	69.81
1028.8	86.31	69.789999
1028.7	86.453999	69.821
1028.6	86.44	69.825999
1028.5	86.41	69.825
1028.4	86.324	69.832
1028.3	86.271	69.813
1028.2	86.299	69.813
1028.1	86.325	69.827
1028	86.337	69.867
1027.9	86.333	69.816999
1027.8	86.299	69.807
1027.7	86.258	69.8
1027.6	86.294	69.733999
1027.5	86.324	69.768
1027.4	86.366	69.742999
1027.3	86.396	69.741
1027.2	86.323	69.759
1027.1	86.328999	69.74
1027	86.361	69.752
1026.9	86.38	69.755
1026.8	86.355999	69.758
1026.7	86.315	69.776
1026.6	86.292999	69.788
1026.5	86.285	69.753
1026.4	86.312999	69.750999
1026.3	86.339	69.772
1026.2	86.334	69.727999
1026.1	86.301	69.687
1026	86.341	69.703
1025.9	86.316999	69.717
1025.8	86.341	69.703999
1025.7	86.369	69.71
1025.6	86.334	69.727999
1025.5	86.351999	69.756
1025.4	86.339999	69.759
1025.3	86.273	69.706
1025.2	86.361	69.723
1025.1	86.312999	69.688
1025	86.303	69.642
1024.9	86.261	69.61
1024.8	86.339	69.632
1024.7	86.326	69.658
1024.6	86.336	69.651
1024.5	86.414999	69.65
1024.4	86.392	69.607
1024.3	86.407	69.647
1024.2	86.355	69.652
1024.1	86.288	69.643999
1024	86.373	69.675
1023.9	86.268	69.628999
1023.8	86.238	69.652999
1023.7	86.322	69.579
1023.6	86.324	69.632
1023.5	86.319	69.615
1023.4	86.292999	69.589
1023.3	86.334999	69.567
1023.2	86.421	69.562
1023.1	86.366	69.583
1023	86.382	69.611
1022.9	86.322	69.59
1022.8	86.319	69.589
1022.7	86.355	69.614
1022.6	86.334	69.63
1022.5	86.303	69.571
1022.4	86.297	69.568
1022.3	86.276	69.565
1022.2	86.249	69.572999
1022.1	86.301	69.544
1022	86.304	69.544
1021.9	86.316	69.528
1021.8	86.339	69.532
1021.7	86.328	69.538
1021.6	86.325	69.54
1021.5	86.292999	69.543
1021.4	86.316999	69.56
1021.3	86.345	69.557
1021.2	86.309	69.516
1021.1	86.316999	69.494
1021	86.249	69.474999
1020.9	86.259	69.486
1020.8	86.280999	69.486999
1020.7	86.318	69.477
1020.6	86.386	69.477
1020.5	86.371	69.474999
1020.4	86.342	69.486999
1020.3	86.319999	69.455
1020.2	86.299	69.434
1020.1	86.319999	69.473
1020	86.316	69.485
1019.9	86.327	69.477999
1019.8	86.324	69.452
1019.7	86.306	69.449
1019.6	86.284	69.434
1019.5	86.33	69.41
1019.4	86.385	69.420999
1019.3	86.413	69.366
1019.2	86.323	69.392
1019.1	86.321	69.378
1019	86.316	69.435999
1018.9	86.294	69.394
1018.8	86.327	69.423
1018.7	86.353	69.418
1018.6	86.283	69.396
1018.5	86.328	69.399999
1018.4	86.221	69.394
1018.3	86.246	69.405
1018.2	86.273	69.37
1018.1	86.328999	69.367999
1018	86.343999	69.357
1017.9	86.303	69.343
1017.8	86.316	69.311
1017.7	86.385	69.359
1017.6	86.351999	69.318
1017.5	86.355	69.324
1017.4	86.284	69.33
1017.3	86.311	69.319
1017.2	86.309	69.347
1017.1	86.303	69.343
1017	86.273	69.358
1016.9	86.267	69.304
1016.8	86.201	69.297
1016.7	86.217	69.271
1016.6	86.241999	69.293
1016.5	86.294	69.297
1016.4	86.312	69.269
1016.3	86.35	69.283
1016.2	86.334999	69.293
1016.1	86.307	69.276
1016	86.288	69.291
1015.9	86.312	69.298
1015.8	86.338	69.28
1015.7	86.327	69.307
1015.6	86.268999	69.286
1015.5	86.244	69.246
1015.4	86.280999	69.232
1015.3	86.312	69.23
1015.2	86.339	69.215999
1015.1	86.343999	69.21
1015	86.324	69.221
1014.9	86.325	69.215999
1014.8	86.336	69.221
1014.7	86.343	69.261
1014.6	86.372	69.241
1014.5	86.358	69.221
1014.4	86.292999	69.225
1014.3	86.233	69.196
1014.2	86.224999	69.191
1014.1	86.232	69.161
1014	86.27	69.166
1013.9	86.328	69.140999
1013.8	86.322	69.167
1013.7	86.307	69.135
1013.6	86.319999	69.14
1013.5	86.275	69.123
1013.4	86.372	69.149
1013.3	86.312999	69.155
1013.2	86.304	69.171
1013.1	86.226	69.13
1013	86.211	69.123
1012.9	86.206	69.103
1012.8	86.267	69.086
1012.7	86.264	69.048
1012.6	86.26	69.077999
1012.5	86.235	69.105999
1012.4	86.232	69.081999
1012.3	86.276	69.101
1012.2	86.304999	69.113
1012.1	86.315	69.072999
1012	86.288	69.108999
1011.9	86.241	69.102
1011.8	86.182	69.076
1011.7	86.231	69.047
1011.6	86.306	69.033999
1011.5	86.284	69.045
1011.4	86.273	69.025
1011.3	86.241	69.029
1011.2	86.256999	69.009
1011.1	86.277	68.996
1011	86.291	68.997
1010.9	86.353	69.003
1010.8	86.343999	69.044
1010.7	86.302	69.087
1010.6	86.233999	69.023
1010.5	86.236	68.998
1010.4	86.201	69.018
1010.3	86.181	69.014
1010.2	86.25	68.994999
1010.1	86.259	68.971999
1010	86.248	68.941
1009.9	86.249	68.955
1009.8	86.241	68.959999
1009.7	86.243	68.934
1009.6	86.28	68.969
1009.5	86.302	68.986
1009.4	86.248	68.961
1009.3	86.261	68.976
1009.2	86.204	68.986999
1009.1	86.175	68.932999
1009	86.199	68.926
1008.9	86.182999	68.943
1008.8	86.196	68.937
